Method:,Column 1,,
Host Date-Time:,23/6/21 @ 6:17:22,,
Header Version:,1,,
System Temp (C):,24.15,,
Detector Temp (C):,19.84,,
Humidity (%):,54.12,,
Lamp PD:,3767,,
Shift Vector Coefficients:,-9.227,0.0649514,-0.00011044,,
Pixel to Wavelength Coefficients:,1810.91,-0.916448,-0.000236451,,
Serial Number:,5360041,,
Scan Config Name:,Column 1,,
Scan Config Type:,Slew,,
Section 1,,
Start wavelength (nm):,900,,
End wavelength (nm):,1700,,
Pattern Pixel Width (nm):,   7.03,,,,
Exposure (ms):,  0.635,,,,
Digital Resolution:,228,,
Num Repeats:,6,,
PGA Gain:,64,,
Total Measurement Time in sec:,  2.606,,
Wavelength (nm),Absorbance (AU),Reference Signal (unitless),Sample Signal (unitless)
901.088137,0.160373,41838.000000,28920.000000
904.997985,0.165188,48103.000000,32884.000000
908.903577,0.170587,54016.000000,36470.000000
912.804913,0.174607,60169.000000,40250.000000
918.000073,0.181897,70564.000000,46418.000000
921.891478,0.185346,79654.000000,51983.000000
925.778627,0.190699,89700.000000,57822.000000
929.661520,0.200464,100239.000000,63179.000000
933.540156,0.205709,109446.000000,68154.000000
937.414537,0.215456,117708.000000,71672.000000
941.284661,0.222911,124606.000000,74581.000000
945.150529,0.234190,131146.000000,76483.000000
949.012141,0.242797,136760.000000,78192.000000
952.869497,0.254128,141885.000000,79033.000000
958.006018,0.264041,147984.000000,80570.000000
961.853443,0.272281,153029.000000,81751.000000
965.696612,0.276972,157730.000000,83357.000000
969.535525,0.282373,162181.000000,84650.000000
973.370181,0.286601,166803.000000,86219.000000
977.200582,0.288946,171686.000000,88265.000000
981.026726,0.287620,175039.000000,90264.000000
984.848614,0.290089,179017.000000,91792.000000
988.666246,0.290189,182897.000000,93760.000000
992.479622,0.291090,185253.000000,94771.000000
996.288742,0.291728,187818.000000,95942.000000
1001.360948,0.291376,190772.000000,97530.000000
1005.160137,0.291326,192876.000000,98617.000000
1008.955070,0.288771,193747.000000,99647.000000
1012.745747,0.289608,195280.000000,100242.000000
1016.532167,0.290739,196346.000000,100527.000000
1020.314331,0.289404,197194.000000,101272.000000
1024.092240,0.289420,198095.000000,101731.000000
1027.865892,0.284858,198497.000000,103014.000000
1031.635288,0.286944,199321.000000,102946.000000
1035.400428,0.286815,200160.000000,103410.000000
1040.413994,0.285431,199967.000000,103640.000000
1044.169203,0.286620,199836.000000,103289.000000
1047.920156,0.286214,200123.000000,103534.000000
1051.666852,0.286373,199995.000000,103430.000000
1055.409293,0.290177,200001.000000,102531.000000
1059.147477,0.288209,200157.000000,103077.000000
1062.881406,0.290606,200769.000000,102823.000000
1066.611078,0.290154,200632.000000,102860.000000
1070.336494,0.295298,201345.000000,102010.000000
1074.057654,0.293979,201966.000000,102636.000000
1079.012580,0.297187,203069.000000,102437.000000
1082.723809,0.301455,204488.000000,102144.000000
1086.430782,0.304217,205553.000000,102025.000000
1090.133498,0.305967,207289.000000,102473.000000
1093.831959,0.310708,209194.000000,102292.000000
1097.526163,0.311375,210937.000000,102986.000000
1101.216112,0.317250,213258.000000,102720.000000
1104.901804,0.323124,215518.000000,102414.000000
1108.583240,0.323073,217607.000000,103419.000000
1112.260420,0.329951,219948.000000,102889.000000
1115.933344,0.333596,221873.000000,102922.000000
1120.823955,0.345706,225409.000000,101687.000000
1124.486948,0.355723,228069.000000,100541.000000
1128.145685,0.366400,230370.000000,99089.000000
1131.800165,0.381053,232879.000000,96845.000000
1135.450390,0.398982,235735.000000,94068.000000
1139.096358,0.416494,238069.000000,91245.000000
1142.738071,0.436146,241252.000000,88374.000000
1146.375527,0.453186,243862.000000,85893.000000
1150.008727,0.464920,245824.000000,84276.000000
1153.637671,0.477702,249063.000000,82910.000000
1158.469642,0.489310,252780.000000,81928.000000
1162.088655,0.497033,256260.000000,81592.000000
1165.703412,0.502794,259055.000000,81395.000000
1169.313912,0.510053,261978.000000,80949.000000
1172.920157,0.513901,264985.000000,81156.000000
1176.522145,0.518968,269426.000000,81559.000000
1180.119878,0.524181,272409.000000,81478.000000
1183.713354,0.526576,276023.000000,82105.000000
1187.302574,0.531450,280835.000000,82604.000000
1190.887538,0.532037,284660.000000,83616.000000
1194.468246,0.531563,289355.000000,85088.000000
1199.235902,0.533509,294470.000000,86205.000000
1202.806679,0.531844,298982.000000,87862.000000
1206.373200,0.532337,303505.000000,89090.000000
1209.935464,0.530913,307931.000000,90686.000000
1213.493473,0.530073,312016.000000,92067.000000
1217.047225,0.527680,316965.000000,94044.000000
1220.596721,0.526281,321210.000000,95611.000000
1224.141962,0.523049,325858.000000,97719.000000
1227.682946,0.522836,330391.000000,99127.000000
1231.219673,0.522097,334507.000000,100533.000000
1235.928690,0.519442,339691.000000,102717.000000
1239.455487,0.517684,343760.000000,104369.000000
1242.978028,0.516251,347020.000000,105707.000000
1246.496312,0.516490,350545.000000,106722.000000
1250.010341,0.517547,353991.000000,107509.000000
1253.520113,0.515638,356683.000000,108804.000000
1257.025629,0.515963,358341.000000,109228.000000
1260.526889,0.517143,360820.000000,109685.000000
1264.023894,0.520757,364183.000000,109790.000000
1267.516641,0.521213,367840.000000,110776.000000
1272.167018,0.525104,373653.000000,111523.000000
1275.649835,0.526770,377992.000000,112386.000000
1279.128396,0.531917,382454.000000,112373.000000
1282.602700,0.534495,386758.000000,112965.000000
1286.072749,0.541012,391232.000000,112570.000000
1289.538541,0.544733,395482.000000,112822.000000
1293.000078,0.551049,399181.000000,112233.000000
1296.457358,0.558470,402851.000000,111346.000000
1299.910382,0.568412,405972.000000,109669.000000
1303.359150,0.575658,409012.000000,108662.000000
1306.803662,0.585220,412072.000000,107091.000000
1311.389723,0.598686,415273.000000,104628.000000
1314.824304,0.611983,418670.000000,102303.000000
1318.254629,0.624775,421073.000000,99904.000000
1321.680698,0.637284,422767.000000,97458.000000
1325.102510,0.651165,424477.000000,94774.000000
1328.520066,0.665564,425846.000000,91979.000000
1331.933367,0.681535,427220.000000,88944.000000
1335.342411,0.694618,428460.000000,86555.000000
1338.747199,0.709765,429602.000000,83811.000000
1342.147731,0.723559,430095.000000,81284.000000
1346.675152,0.742474,430925.000000,77970.000000
1350.065753,0.755293,430662.000000,75656.000000
1353.452098,0.771950,430235.000000,72737.000000
1356.834187,0.784403,429864.000000,70620.000000
1360.212019,0.799498,430326.000000,68281.000000
1363.585596,0.813234,429141.000000,65973.000000
1366.954916,0.836166,428594.000000,62500.000000
1370.319980,0.862578,427739.000000,58695.000000
1373.680788,0.893726,426684.000000,54498.000000
1377.037340,0.925324,424716.000000,50440.000000
1380.389636,0.966319,423009.000000,45712.000000
1384.852743,1.022545,421250.000000,39994.000000
1388.195107,1.061811,419513.000000,36386.000000
1391.533216,1.108853,418386.000000,32563.000000
1394.867069,1.146352,416533.000000,29737.000000
1398.196665,1.184705,415362.000000,27147.000000
1401.522005,1.216097,414359.000000,25193.000000
1404.843090,1.251990,412901.000000,23113.000000
1408.159918,1.263388,412217.000000,22477.000000
1411.472490,1.280313,411361.000000,21573.000000
1414.780805,1.296859,411033.000000,20750.000000
1419.185272,1.306586,409830.000000,20231.000000
1422.483657,1.324213,409401.000000,19406.000000
1425.777786,1.321310,409230.000000,19528.000000
1429.067659,1.342071,409352.000000,18622.000000
1432.353275,1.345978,408571.000000,18420.000000
1435.634635,1.340559,408784.000000,18661.000000
1438.911740,1.358390,408388.000000,17893.000000
1442.184588,1.351734,408718.000000,18184.000000
1445.453180,1.347382,408114.000000,18340.000000
1448.717516,1.348198,407298.000000,18269.000000
1453.063343,1.355301,406083.000000,17919.000000
1456.317748,1.353905,404893.000000,17924.000000
1459.567896,1.361786,403727.000000,17551.000000
1462.813789,1.354864,402460.000000,17777.000000
1466.055425,1.356161,401052.000000,17662.000000
1469.292806,1.356343,399335.000000,17579.000000
1472.525930,1.355142,397326.000000,17539.000000
1475.754798,1.364242,395699.000000,17105.000000
1478.979410,1.342844,393830.000000,17884.000000
1482.199766,1.355071,391553.000000,17287.000000
1485.415866,1.348518,389192.000000,17444.000000
1489.697378,1.338667,386592.000000,17725.000000
1492.903547,1.336641,383773.000000,17678.000000
1496.105460,1.322915,380646.000000,18097.000000
1499.303116,1.325193,377552.000000,17856.000000
1502.496517,1.312618,375404.000000,18276.000000
1505.685661,1.313467,371858.000000,18068.000000
1508.870549,1.316915,368993.000000,17787.000000
1512.051181,1.304757,365725.000000,18130.000000
1515.227557,1.297868,362273.000000,18246.000000
1518.399677,1.297214,358179.000000,18067.000000
1522.622549,1.283930,354157.000000,18419.000000
1525.784738,1.280885,350480.000000,18356.000000
1528.942671,1.263072,346255.000000,18894.000000
1532.096347,1.264693,342381.000000,18613.000000
1535.245768,1.252439,338077.000000,18905.000000
1538.390932,1.241634,334863.000000,19197.000000
1541.531840,1.239765,330125.000000,19007.000000
1544.668493,1.236142,325057.000000,18872.000000
1547.800888,1.223015,320643.000000,19187.000000
1550.929028,1.215095,316424.000000,19283.000000
1555.093261,1.206652,309495.000000,19231.000000
1558.211470,1.205239,305009.000000,19014.000000
1561.325422,1.187665,299676.000000,19453.000000
1564.435119,1.181296,294721.000000,19414.000000
1567.540560,1.183667,289557.000000,18970.000000
1570.641744,1.179703,284567.000000,18814.000000
1573.738672,1.167703,279754.000000,19014.000000
1576.831344,1.159752,274419.000000,18996.000000
1579.919760,1.157333,268872.000000,18716.000000
1583.003920,1.149323,263606.000000,18691.000000
1586.083824,1.140854,257921.000000,18648.000000
1590.183742,1.131647,250804.000000,18522.000000
1593.253714,1.136454,245422.000000,17925.000000
1596.319431,1.126528,239381.000000,17888.000000
1599.380892,1.113626,234206.000000,18029.000000
1602.438096,1.114477,228743.000000,17574.000000
1605.491044,1.118561,223323.000000,16997.000000
1608.539736,1.107174,217518.000000,16995.000000
1611.584172,1.106334,212282.000000,16618.000000
1614.624352,1.099208,206389.000000,16424.000000
1617.660276,1.091303,201087.000000,16296.000000
1621.701554,1.082841,193528.000000,15992.000000
1624.727547,1.079942,188622.000000,15691.000000
1627.749283,1.079856,183537.000000,15271.000000
1630.766764,1.070258,177844.000000,15128.000000
1633.779989,1.066806,171736.000000,14725.000000
1636.788957,1.074206,167154.000000,14090.000000
1639.793669,1.059885,161732.000000,14090.000000
1642.794125,1.069827,155612.000000,13250.000000
1645.790325,1.062678,149386.000000,12931.000000
1648.782269,1.059618,142246.000000,12400.000000
1651.769957,1.049507,133974.000000,11954.000000
1655.746920,1.061389,121380.000000,10538.000000
1658.724676,1.055563,110432.000000,9717.000000
1661.698177,1.068673,99058.000000,8457.000000
1664.667421,1.078947,87253.000000,7275.000000
1667.632410,1.062340,74987.000000,6496.000000
1670.593142,1.054702,63846.000000,5629.000000
1673.549618,1.061031,54103.000000,4701.000000
1676.501838,1.085574,45375.000000,3726.000000
1679.449802,1.053543,38529.000000,3406.000000
1682.393510,1.161163,32827.000000,2265.000000
1686.311833,1.112679,26067.000000,2011.000000
1689.245610,1.045261,22330.000000,2012.000000
1692.175130,1.026154,19574.000000,1843.000000
1695.100395,1.073999,16743.000000,1412.000000
1698.021403,1.053975,14743.000000,1302.000000
1700.938155,1.097561,12694.000000,1014.000000
